PRZ of Cu
Intensities:
Ka1: 3032.96 ABS: 2947.72
La1: 7495.31 ABS: 3109.58
Depth(nm)	Intensity: K	Intensity K ABS	Intensity: LIII	Intensity: LIII ABS
0	1.25003	1.24965	1.43733	1.42464
3.80206	1.44269	1.44196	1.75417	1.72834
7.60412	1.49829	1.49718	1.86358	1.82271
11.4062	1.52652	1.525	1.91758	1.86108
15.2082	1.55476	1.55281	1.99501	1.92065
19.0103	1.60953	1.60707	2.08153	1.98757
22.8124	1.63975	1.6368	2.1278	2.01518
26.6144	1.66321	1.65976	2.14842	2.01781
30.4165	1.67935	1.67541	2.17623	2.027
34.2185	1.71986	1.71534	2.24328	2.07191
38.0206	1.73487	1.72985	2.28065	2.08924
41.8226	1.76464	1.75904	2.31709	2.10486
45.6247	1.79649	1.79029	2.38509	2.1485
49.4268	1.81131	1.80456	2.40096	2.14474
53.2288	1.82714	1.81983	2.43038	2.15315
57.0309	1.86838	1.86039	2.48294	2.18145
60.8329	1.88516	1.87659	2.50313	2.18092
64.635	1.89689	1.88774	2.55474	2.20731
68.4371	1.93015	1.92031	2.56857	2.20068
72.2391	1.97006	1.95946	2.63274	2.23682
76.0412	1.9902	1.97895	2.68017	2.25818
79.8432	1.99259	1.98079	2.71849	2.27149
83.6453	2.00293	1.99051	2.75329	2.2814
87.4473	1.98392	1.97107	2.72791	2.24141
91.2494	2.04195	2.02816	2.79308	2.27588
95.0515	2.09482	2.08011	2.8703	2.31939
98.8535	2.09495	2.07965	2.89852	2.32263
102.656	2.125	2.10891	2.94183	2.33796
106.458	2.14507	2.12823	2.9813	2.34944
110.26	2.17704	2.15935	3.02122	2.36105
114.062	2.13029	2.1124	2.93936	2.27805
117.864	2.14468	2.12608	2.97512	2.28657
121.666	2.1542	2.13493	3.00341	2.28905
125.468	2.20041	2.18012	3.06346	2.31531
129.27	2.20837	2.1874	3.09649	2.32076
133.072	2.22598	2.20424	3.12876	2.32545
136.874	2.26292	2.24021	3.16102	2.33005
140.676	2.29155	2.26791	3.22042	2.35394
144.478	2.27944	2.2553	3.20197	2.32107
148.28	2.29867	2.2737	3.23226	2.32342
152.082	2.31054	2.28481	3.26738	2.32909
155.884	2.36005	2.33313	3.32957	2.35372
159.686	2.38157	2.35375	3.36619	2.35989
163.489	2.35526	2.3271	3.38219	2.35123
167.291	2.40478	2.37538	3.46829	2.39111
171.093	2.37879	2.34904	3.42816	2.34362
174.895	2.36252	2.33233	3.40219	2.30643
178.697	2.41726	2.38572	3.52609	2.37065
182.499	2.43639	2.40393	3.53512	2.35689
186.301	2.43993	2.40676	3.53314	2.33604
190.103	2.40833	2.37494	3.46824	2.27419
193.905	2.40279	2.36883	3.48061	2.26327
197.707	2.40929	2.37457	3.49569	2.25413
201.509	2.37122	2.3364	3.46078	2.21296
205.311	2.39236	2.35658	3.48874	2.21223
209.113	2.38582	2.34948	3.49189	2.19585
212.915	2.42381	2.38624	3.57425	2.22891
216.717	2.40746	2.36949	3.5832	2.21592
220.519	2.3927	2.35431	3.55629	2.18104
224.321	2.39213	2.35309	3.54572	2.15643
228.124	2.40503	2.36513	3.58848	2.16421
231.926	2.39119	2.35087	3.61507	2.16217
235.728	2.39775	2.35667	3.62695	2.15119
239.53	2.39343	2.35178	3.61729	2.12754
243.332	2.41688	2.37416	3.64537	2.1263
247.134	2.401	2.35791	3.6116	2.08904
250.936	2.36875	2.32559	3.56472	2.0448
254.738	2.34564	2.30227	3.56721	2.02915
258.54	2.37306	2.32853	3.60755	2.03489
262.342	2.3593	2.3144	3.62194	2.02615
266.144	2.3362	2.2911	3.59643	1.99512
269.946	2.36245	2.3162	3.61066	1.98629
273.748	2.38192	2.33464	3.67735	2.00615
277.55	2.41392	2.36536	3.69111	1.99683
281.352	2.3675	2.31923	3.62428	1.94446
285.154	2.36392	2.31508	3.63485	1.93392
288.956	2.38083	2.331	3.6991	1.9517
292.759	2.36019	2.31014	3.70085	1.93625
296.561	2.32273	2.27286	3.67892	1.90887
300.363	2.30872	2.25852	3.66241	1.8845
304.165	2.29356	2.24307	3.63639	1.85554
307.967	2.27545	2.22474	3.65755	1.85074
311.769	2.24924	2.1985	3.59746	1.80514
315.571	2.23502	2.184	3.58433	1.78354
319.373	2.25091	2.19892	3.63558	1.79399
323.175	2.2315	2.17937	3.62623	1.77471
326.977	2.23342	2.18064	3.63657	1.76486
330.779	2.20746	2.15469	3.62168	1.74293
334.581	2.20437	2.15108	3.6418	1.73807
338.383	2.18851	2.13501	3.63252	1.71918
342.185	2.18383	2.12986	3.60574	1.69235
345.987	2.18721	2.13256	3.60743	1.67899
349.789	2.18232	2.12721	3.59484	1.65921
353.591	2.14273	2.08804	3.55839	1.62869
357.394	2.13928	2.0841	3.57686	1.62353
361.196	2.1041	2.04926	3.4961	1.5737
364.998	2.09495	2.03978	3.48143	1.55401
368.8	2.10643	2.05039	3.52199	1.55902
372.602	2.13402	2.07668	3.57159	1.56789
376.404	2.11903	2.06153	3.53687	1.53975
380.206	2.11613	2.05813	3.53536	1.52627
384.008	2.12426	2.06548	3.55113	1.52033
387.81	2.10301	2.04424	3.53104	1.49904
391.612	2.10187	2.04257	3.51649	1.4805
395.414	2.07414	2.01506	3.50325	1.46262
399.216	2.0666	2.00719	3.53869	1.46519
403.018	2.02265	1.96395	3.4542	1.41824
406.82	1.98005	1.92205	3.43756	1.39962
410.622	2.01903	1.95935	3.50281	1.41434
414.424	1.99447	1.93499	3.50859	1.40489
418.226	1.98176	1.92212	3.44986	1.36994
422.029	2.01066	1.94961	3.51318	1.38343
425.831	2.00385	1.94247	3.51354	1.37201
429.633	1.95585	1.89542	3.49236	1.35248
433.435	1.93275	1.87252	3.47401	1.33415
437.237	1.90147	1.8417	3.41235	1.29962
441.039	1.86574	1.80659	3.33065	1.25782
444.841	1.88113	1.82099	3.4001	1.27337
448.643	1.88262	1.82193	3.37048	1.25177
452.445	1.85394	1.79368	3.33124	1.22701
456.247	1.8214	1.76171	3.29246	1.2025
460.049	1.79699	1.73762	3.28958	1.1915
463.851	1.79515	1.73536	3.29485	1.1835
467.653	1.75911	1.70005	3.25157	1.1582
471.455	1.77135	1.71141	3.27708	1.15762
475.257	1.71874	1.66011	3.18358	1.11516
479.059	1.72919	1.66975	3.21952	1.11833
482.861	1.72985	1.66992	3.22089	1.10956
486.664	1.70501	1.64549	3.17571	1.08489
490.466	1.71493	1.65461	3.22835	1.09373
494.268	1.69682	1.63668	3.20688	1.07737
498.07	1.69947	1.63878	3.23327	1.0772
501.872	1.6744	1.61416	3.19938	1.05707
505.674	1.65961	1.59946	3.12801	1.02489
509.476	1.61338	1.55447	3.1182	1.01305
513.278	1.60932	1.55013	3.12468	1.00675
517.08	1.60625	1.54676	3.13155	1.0006
520.882	1.61595	1.55566	3.13611	0.993692
524.684	1.58841	1.52872	3.14636	0.988643
528.486	1.54436	1.48593	3.05866	0.953105
532.288	1.5418	1.48305	3.02716	0.935482
536.09	1.52864	1.46999	3.02692	0.927585
539.892	1.52226	1.46345	3.04185	0.924352
543.694	1.5032	1.44472	3.01581	0.908838
547.496	1.51738	1.45795	3.02637	0.904467
551.299	1.47316	1.41507	2.95729	0.876438
555.101	1.50476	1.44502	3.00354	0.882765
558.903	1.45054	1.39257	2.91303	0.848995
562.705	1.4229	1.36566	2.90265	0.838934
566.507	1.38394	1.3279	2.91653	0.835963
570.309	1.37257	1.31662	2.86451	0.814202
574.111	1.3613	1.30545	2.84311	0.801417
577.913	1.39132	1.33387	2.8917	0.808272
581.715	1.37136	1.31437	2.87152	0.795989
585.517	1.38225	1.32444	2.89241	0.795089
589.319	1.33334	1.27723	2.84946	0.776801
593.121	1.35525	1.29785	2.88054	0.778664
596.923	1.35616	1.29837	2.88215	0.772641
600.725	1.31701	1.26054	2.83496	0.753682
604.527	1.28577	1.23029	2.80282	0.738921
608.329	1.27606	1.22067	2.7805	0.726949
612.131	1.25369	1.19894	2.75456	0.714179
615.934	1.24342	1.18879	2.75607	0.70859
619.736	1.21955	1.16564	2.6862	0.684912
623.538	1.20185	1.1484	2.65928	0.672381
627.34	1.16144	1.10948	2.62007	0.656949
631.142	1.17925	1.12619	2.65036	0.659025
634.944	1.18076	1.12732	2.6942	0.664376
638.746	1.15451	1.10195	2.61312	0.639032
642.548	1.1315	1.07969	2.5794	0.625499
646.35	1.11944	1.06789	2.53599	0.609838
650.152	1.11351	1.06194	2.54582	0.607114
653.954	1.08976	1.039	2.51337	0.594398
657.756	1.05401	1.00464	2.4919	0.584391
661.558	1.04986	1.00041	2.48092	0.576995
665.36	1.04643	0.996858	2.47039	0.569776
669.162	1.04294	0.993261	2.44758	0.559824
672.964	1.02253	0.973555	2.4372	0.552778
676.766	1.02884	0.979295	2.43095	0.546815
680.569	0.999187	0.9508	2.39848	0.534953
684.371	0.995597	0.947127	2.4169	0.534622
688.173	0.963897	0.916717	2.36527	0.518849
691.975	0.969075	0.921384	2.34651	0.510424
695.777	0.948103	0.901194	2.30423	0.497054
699.579	0.943555	0.896625	2.25582	0.482583
703.381	0.928737	0.882301	2.25784	0.47899
707.183	0.907073	0.861481	2.26965	0.477481
710.985	0.905307	0.859566	2.29195	0.478148
714.787	0.900024	0.854315	2.29686	0.475207
718.589	0.885366	0.840166	2.30551	0.473011
722.391	0.879401	0.834276	2.27936	0.463765
726.193	0.879531	0.834168	2.24244	0.452439
729.995	0.861594	0.816932	2.23316	0.446846
733.797	0.817167	0.774592	2.14628	0.425864
737.599	0.821447	0.778432	2.14205	0.421473
741.401	0.815858	0.772924	2.13759	0.417105
745.204	0.785478	0.743937	2.12902	0.411991
749.006	0.787645	0.745786	2.09006	0.401099
752.808	0.779825	0.738174	2.06736	0.393412
756.61	0.777416	0.735693	2.06371	0.389464
760.412	0.76668	0.725331	2.03391	0.380637
764.214	0.741609	0.701418	1.99944	0.371073
768.016	0.73271	0.692809	1.91924	0.353215
771.818	0.72245	0.682919	1.91031	0.348643
775.62	0.731326	0.691118	1.95167	0.353215
779.422	0.719084	0.679362	1.93702	0.347666
783.224	0.691585	0.653202	1.84655	0.328672
787.026	0.699816	0.660793	1.89729	0.334889
790.828	0.693864	0.654992	1.86646	0.32671
794.63	0.676929	0.638828	1.84435	0.320139
798.432	0.65471	0.61769	1.77571	0.30567
802.234	0.643722	0.607155	1.77472	0.302955
806.036	0.635831	0.599545	1.75189	0.296559
809.839	0.621974	0.586318	1.69754	0.284968
813.641	0.607771	0.572772	1.71045	0.284764
817.443	0.603723	0.568799	1.6926	0.279429
821.245	0.602881	0.567849	1.74401	0.285525
825.047	0.585923	0.551723	1.73648	0.281936
828.849	0.589372	0.554816	1.72847	0.278273
832.651	0.565388	0.532093	1.69971	0.271385
836.453	0.559903	0.526783	1.69193	0.267899
840.255	0.547245	0.514732	1.62059	0.254458
844.057	0.543195	0.510782	1.62738	0.25339
847.859	0.533121	0.501172	1.6101	0.248634
851.661	0.527356	0.495615	1.58842	0.243246
855.463	0.512785	0.481787	1.55123	0.235551
859.265	0.506764	0.475999	1.56232	0.235277
863.067	0.480925	0.451603	1.47876	0.220827
866.869	0.465227	0.436741	1.46691	0.217229
870.671	0.457902	0.429746	1.46739	0.215499
874.473	0.463592	0.434965	1.48282	0.215956
878.276	0.456183	0.427895	1.45388	0.209967
882.078	0.450306	0.422266	1.42438	0.204004
885.88	0.444583	0.416785	1.40895	0.20011
889.682	0.459251	0.430419	1.41852	0.199809
893.484	0.441772	0.413921	1.39761	0.195213
897.286	0.423999	0.397158	1.3628	0.188771
901.088	0.400497	0.37504	1.32591	0.182131
904.89	0.3826	0.358181	1.29391	0.176254
908.692	0.380295	0.355925	1.25678	0.169766
912.494	0.385113	0.360336	1.26906	0.170003
916.296	0.376846	0.352503	1.27666	0.169603
920.098	0.368981	0.34505	1.24184	0.163595
923.9	0.368355	0.344369	1.2664	0.165431
927.702	0.3451	0.32254	1.2355	0.160068
931.504	0.341867	0.31943	1.20815	0.155225
935.306	0.327897	0.306292	1.17669	0.149919
939.108	0.331909	0.309953	1.14953	0.145235
942.911	0.322963	0.301516	1.12426	0.140868
946.713	0.313401	0.292508	1.10363	0.137124
950.515	0.323287	0.301651	1.11689	0.137612
954.317	0.325003	0.303169	1.12971	0.138047
958.119	0.301387	0.281063	1.08522	0.131511
961.921	0.293607	0.273731	1.092	0.131223
965.723	0.300147	0.279751	1.07005	0.127509
969.525	0.282775	0.263485	1.02659	0.121305
973.327	0.274673	0.255865	1.01454	0.118887
977.129	0.273959	0.255132	1.00158	0.116404
980.931	0.268644	0.250112	1.03704	0.119518
984.733	0.259611	0.241634	1.01269	0.115725
988.535	0.253111	0.23552	0.963161	0.109162
992.337	0.254615	0.236855	0.972872	0.109349
996.139	0.252335	0.234667	0.956325	0.106585
999.941	0.254685	0.236788	0.989549	0.109366
1003.74	0.250023	0.23239	0.973182	0.106678
1007.55	0.236723	0.219967	0.940118	0.102182
1011.35	0.242363	0.225146	0.966635	0.1042
1015.15	0.232522	0.215943	0.94271	0.100776
1018.95	0.222166	0.20627	0.894844	0.0948621
1022.75	0.218659	0.202956	0.884576	0.0929837
1026.56	0.218512	0.202765	0.888859	0.0926619
1030.36	0.214617	0.199095	0.893344	0.0923598
1034.16	0.212305	0.196895	0.880082	0.0902242
1037.96	0.204836	0.189916	0.874721	0.0889262
1041.76	0.197774	0.183318	0.833025	0.0839857
1045.57	0.191625	0.177569	0.861982	0.0861767
1049.37	0.19169	0.177581	0.818247	0.0811343
1053.17	0.191648	0.177492	0.791598	0.0778319
1056.97	0.178154	0.164949	0.782587	0.0763027
1060.77	0.172289	0.159475	0.777828	0.0752136
1064.58	0.172845	0.159946	0.789623	0.075717
1068.38	0.17127	0.158444	0.775292	0.0737267
1072.18	0.168321	0.155672	0.742596	0.0700266
1075.98	0.171419	0.158494	0.765304	0.0715629
1079.78	0.158698	0.146692	0.710693	0.0659071
1083.59	0.150754	0.139311	0.704847	0.0648254
1087.39	0.150667	0.139191	0.687562	0.0627027
1091.19	0.148827	0.137453	0.684017	0.0618599
1094.99	0.149087	0.137657	0.689981	0.061883
1098.79	0.144543	0.133423	0.685182	0.0609434
1102.6	0.1443	0.133162	0.70015	0.0617529
1106.4	0.135852	0.125331	0.679365	0.0594184
1110.2	0.134712	0.124245	0.658035	0.0570761
1114	0.126215	0.116377	0.641159	0.0551474
1117.81	0.122646	0.113055	0.627988	0.0535673
1121.61	0.126722	0.116779	0.650501	0.0550263
1125.41	0.124629	0.114818	0.617359	0.0517854
1129.21	0.12053	0.111013	0.578086	0.0480921
1133.01	0.113465	0.104476	0.564235	0.0465486
1136.82	0.108838	0.100188	0.551799	0.0451467
1140.62	0.101934	0.0938057	0.54619	0.0443098
1144.42	0.100861	0.0927931	0.533849	0.0429503
1148.22	0.101684	0.0935247	0.520177	0.0415019
1152.02	0.0976209	0.0897622	0.506713	0.0400862
1155.83	0.0959132	0.0881681	0.519227	0.040735
1159.63	0.0934715	0.0858996	0.51995	0.0404556
1163.43	0.0908295	0.083449	0.499755	0.0385599
1167.23	0.088541	0.0813236	0.507396	0.0388223
1171.03	0.0884508	0.0812186	0.51557	0.0391257
1174.84	0.0877004	0.0805071	0.493662	0.0371496
1178.64	0.0878586	0.0806302	0.472453	0.0352552
1182.44	0.0866504	0.079499	0.476525	0.0352618
1186.24	0.0848824	0.0778559	0.463312	0.0340035
1190.04	0.0774208	0.0709923	0.443264	0.0322574
1193.85	0.0808846	0.0741474	0.469805	0.0339028
1197.65	0.0752417	0.0689557	0.436467	0.0312391
1201.45	0.0778472	0.0713233	0.436322	0.030965
1205.25	0.0775281	0.0710118	0.417358	0.029374
1209.05	0.0739407	0.0677081	0.414523	0.0289347
1212.86	0.073034	0.0668582	0.402785	0.0278771
1216.66	0.0737693	0.0675129	0.424626	0.0291473
1220.46	0.070766	0.0647463	0.427783	0.0291209
1224.26	0.0752233	0.0688056	0.419329	0.0283055
1228.06	0.0633794	0.0579561	0.394423	0.0264024
1231.87	0.058987	0.0539243	0.371808	0.0246797
1235.67	0.0562373	0.0513965	0.373377	0.0245761
1239.47	0.0531965	0.048604	0.340107	0.0222009
1243.27	0.0582847	0.0532387	0.368502	0.0238591
1247.08	0.0567641	0.0518354	0.358858	0.0230382
1250.88	0.0540934	0.049383	0.388261	0.0247218
1254.68	0.0508732	0.0464305	0.354435	0.0223792
1258.48	0.0467471	0.042652	0.335309	0.0209885
1262.28	0.0474816	0.0433107	0.341165	0.021183
1266.09	0.0483417	0.0440827	0.319518	0.0196723
1269.89	0.0455554	0.0415304	0.329434	0.020113
1273.69	0.0428609	0.0390631	0.310151	0.0187779
1277.49	0.0423606	0.0385968	0.302319	0.0181529
1281.29	0.0448954	0.0408953	0.302553	0.0180156
1285.1	0.0431269	0.0392738	0.280049	0.0165394
1288.9	0.0414993	0.037781	0.291813	0.0170879
1292.7	0.0414257	0.0377032	0.273094	0.0158607
1296.5	0.0409857	0.0372927	0.263733	0.0151889
1300.3	0.0368307	0.0335024	0.270112	0.0154236
1304.11	0.0341327	0.0310396	0.256241	0.0145115
1307.91	0.03384	0.0307651	0.247398	0.0138929
1311.71	0.0335678	0.0305091	0.257607	0.014348
1315.51	0.0324739	0.0295067	0.242327	0.0133836
1319.31	0.0336793	0.0305941	0.258259	0.0141476
1323.12	0.032041	0.0290973	0.23521	0.0127756
1326.92	0.0296538	0.026922	0.218165	0.0117516
1330.72	0.0270649	0.0245648	0.209956	0.0112136
1334.52	0.0248097	0.0225115	0.188467	0.00998343
1338.32	0.0257519	0.0233602	0.191035	0.0100341
1342.13	0.0261885	0.0237499	0.182218	0.00949289
1345.93	0.0247895	0.022475	0.191127	0.0098733
1349.73	0.0237651	0.0215404	0.178712	0.00915619
1353.53	0.0212889	0.0192904	0.183182	0.00930624
1357.33	0.0219133	0.0198506	0.166844	0.00840571
1361.14	0.0231529	0.0209677	0.16583	0.00828394
1364.94	0.0215078	0.0194723	0.168657	0.0083548
1368.74	0.0196015	0.0177419	0.161829	0.00795236
1372.54	0.0180469	0.0163302	0.164033	0.00799198
1376.35	0.0167144	0.0151202	0.147047	0.00710469
1380.15	0.016944	0.0153238	0.148135	0.00709749
1383.95	0.0169606	0.0153346	0.145034	0.00689213
1387.75	0.0162552	0.0146928	0.14014	0.00660373
1391.55	0.0164447	0.0148597	0.148127	0.00692129
1395.36	0.0169372	0.0153003	0.158631	0.00734922
1399.16	0.0169139	0.0152753	0.151184	0.00694821
1402.96	0.015548	0.0140381	0.143649	0.00654743
1406.76	0.0154201	0.0139188	0.132046	0.00596817
1410.56	0.0149522	0.0134923	0.136218	0.00610436
1414.37	0.014091	0.0127119	0.134322	0.00597018
1418.17	0.0141753	0.0127844	0.129628	0.00571312
1421.97	0.0129173	0.0116468	0.124039	0.00542193
1425.77	0.0110907	0.00999703	0.118457	0.00513427
1429.57	0.00957125	0.00862479	0.117876	0.00506563
1433.38	0.0102347	0.00922006	0.134608	0.00573649
1437.18	0.0103515	0.00932273	0.131654	0.00556464
1440.98	0.0110955	0.00999021	0.129489	0.00542815
1444.78	0.0109241	0.00983312	0.116151	0.00482904
1448.58	0.0109759	0.00987714	0.124182	0.00511971
1452.39	0.0100789	0.00906741	0.110713	0.00452575
1456.19	0.00890497	0.00800913	0.102019	0.00413669
1459.99	0.00836597	0.00752212	0.0860944	0.00346104
1463.79	0.0079652	0.00715964	0.0966996	0.00385496
1467.59	0.0075987	0.00682841	0.0897083	0.00354539
1471.4	0.0069682	0.00626022	0.101126	0.00396516
1475.2	0.00666313	0.00598438	0.0835091	0.00324738
1479	0.00679916	0.00610487	0.0793379	0.00305856
1482.8	0.00755156	0.00677862	0.0913633	0.00349267
1486.6	0.00660599	0.00592821	0.0892334	0.00338395
1490.41	0.00766132	0.00687341	0.0972044	0.00365452
1494.21	0.00705771	0.00633004	0.0936723	0.00349221
1498.01	0.00664039	0.00595416	0.101674	0.0037597
1501.81	0.00594826	0.00533198	0.087178	0.00319688
1505.62	0.00525693	0.00471111	0.0868737	0.00315976
1509.42	0.00516645	0.00462885	0.0976768	0.00352297
1513.22	0.00461462	0.00413312	0.0778959	0.00278497
1517.02	0.0044552	0.00398916	0.0696996	0.00247164
1520.82	0.00432276	0.00386963	0.0685462	0.00241041
1524.63	0.00403254	0.00360873	0.0693283	0.00241805
1528.43	0.00398745	0.00356732	0.0666062	0.00230382
1532.23	0.00393199	0.00351678	0.0665815	0.00228339
1536.03	0.00443994	0.00396997	0.0730521	0.00248457
1539.83	0.00415251	0.00371208	0.066968	0.00225901
1543.64	0.00423671	0.00378636	0.0656488	0.0021965
1547.44	0.00411898	0.00368012	0.0647121	0.00214676
1551.24	0.00423931	0.0037865	0.0573681	0.00188716
1555.04	0.00360965	0.00322321	0.0537282	0.00175243
1558.84	0.00388959	0.00347223	0.0462558	0.00149666
1562.65	0.00298445	0.00266365	0.0376314	0.00120768
1566.45	0.00299393	0.00267121	0.0422696	0.00134456
1570.25	0.00303064	0.00270331	0.0496598	0.00156678
1574.05	0.00385507	0.00343765	0.049502	0.00154881
1577.85	0.00295399	0.00263333	0.0432103	0.00134058
1581.66	0.00259702	0.00231445	0.0401787	0.00123631
1585.46	0.00268898	0.00239577	0.0386279	0.00117843
1589.26	0.00241669	0.00215262	0.0382477	0.00115713
1593.06	0.00258752	0.00230416	0.032322	0.000969744
1596.86	0.00245706	0.00218733	0.0323726	0.000963339
1600.67	0.00236547	0.00210515	0.0326133	0.000961868
1604.47	0.00235213	0.0020928	0.0382091	0.00111794
1608.27	0.00270077	0.00240227	0.043177	0.0012528
1612.07	0.0024398	0.00216957	0.0397537	0.00114386
1615.87	0.00265066	0.00235638	0.03707	0.00105781
1619.68	0.00239455	0.00212808	0.0415855	0.00117631
1623.48	0.00233954	0.0020787	0.0418015	0.00117345
1627.28	0.00206715	0.00183619	0.0385923	0.00107385
1631.08	0.00220598	0.00195899	0.0431021	0.00118953
1634.89	0.00167299	0.00148534	0.0338587	0.000926856
1638.69	0.00163915	0.00145491	0.040784	0.00110671
1642.49	0.00159286	0.00141328	0.0374124	0.00100686
1646.29	0.00165486	0.00146785	0.0284759	0.000759807
1650.09	0.00198466	0.00175998	0.0326431	0.00086398
1653.9	0.00214354	0.00190038	0.0322882	0.000847521
1657.7	0.00210147	0.00186259	0.0350527	0.000912282
1661.5	0.00150371	0.0013324	0.0313024	0.00080827
1665.3	0.00138688	0.00122847	0.026792	0.000685804
1669.1	0.00135765	0.00120228	0.0328264	0.000833085
1672.91	0.00160373	0.0014198	0.0438652	0.00110397
1676.71	0.00162701	0.00143997	0.0390696	0.000975419
1680.51	0.00200236	0.00177167	0.0440646	0.00109082
1684.31	0.00201179	0.00177956	0.0376458	0.000924248
1688.11	0.00135461	0.00119793	0.0387089	0.000942261
1691.92	0.00111495	0.000985756	0.0309382	0.000747132
1695.72	0.00115634	0.00102207	0.0228518	0.000547236
1699.52	0.00107281	0.000947947	0.0230985	0.000548475
1703.32	0.00108191	0.000955689	0.0215769	0.000508122
1707.12	0.00106233	0.000938197	0.0178285	0.000416295
1710.93	0.00108455	0.000957564	0.0191492	0.000443732
1714.73	0.00104625	0.000923458	0.0122402	0.000281166
1718.53	0.00100655	0.000888194	0.0129344	0.000294485
1722.33	0.00120261	0.00106087	0.0175107	0.000395469
1726.13	0.00109821	0.000968457	0.0152412	0.000341122
1729.94	0.00110855	0.000977364	0.0143627	0.000319015
1733.74	0.00120312	0.00106046	0.0179039	0.000394328
1737.54	0.000915849	0.00080702	0.0122674	0.000268025
1741.34	0.000813554	0.000716687	0.0106571	0.000230797
1745.14	0.00089096	0.000784604	0.0104565	0.00022451
1748.95	0.00085608	0.000753684	0.0129617	0.000275859
1752.75	0.000825546	0.000726693	0.0121566	0.000256862
1756.55	0.000716491	0.000630477	0.00971849	0.000203496
1760.35	0.000695113	0.000611512	0.010601	0.000220207
1764.16	0.000675008	0.000593641	0.00922319	0.000190142
1767.96	0.000746918	0.000656711	0.00642555	0.000131302
1771.76	0.000764404	0.000671899	0.00914201	0.000185162
1775.56	0.000838803	0.000737061	0.00864091	0.000173541
1779.36	0.000900247	0.000790827	0.00990956	0.00019726
1783.17	0.000845681	0.000742708	0.00940717	0.000185921
1786.97	0.000873338	0.000766848	0.00711836	0.000139549
1790.77	0.000971957	0.000853178	0.00836396	0.000162548
1794.57	0.00108577	0.000952811	0.00741275	0.000142949
1798.37	0.000608819	0.000534079	0.00612062	0.00011683
1802.18	0.000557005	0.000488495	0.00623391	0.000118101
1805.98	0.000652038	0.000571703	0.00773458	0.000145329
1809.78	0.000759132	0.000665407	0.00682823	0.00012728
1813.58	0.000687382	0.000602338	0.00564479	0.000104305
1817.38	0.000634978	0.000556279	0.00462643	8.47774e-005
1821.19	0.000432601	0.000378884	0.00579823	0.000105355
1824.99	0.000354678	0.000310564	0.00539427	9.72523e-005
1828.79	0.000313101	0.000274103	0.00566319	0.000101194
1832.59	0.000292282	0.000255804	0.00795747	0.000141051
1836.39	0.000289102	0.000252922	0.00667123	0.00011728
1840.2	0.000156575	0.000136948	0.00698949	0.000121838
1844	0.000121626	0.000106347	0.00882796	0.000152622
1847.8	0.000113889	9.95541e-005	0.00420929	7.21788e-005
1851.6	0.000109646	9.58051e-005	0.00356684	6.0554e-005
1855.4	0.000108052	9.4389e-005	0.00453911	7.6436e-005
1859.21	0.000106476	9.30039e-005	0.00355567	5.94139e-005
1863.01	0.000106419	9.29251e-005	0.00371288	6.15445e-005
1866.81	0.000103831	9.06449e-005	0.00364504	5.99876e-005
1870.61	9.85322e-005	8.59909e-005	0.00249879	4.07497e-005
1874.41	9.89683e-005	8.63399e-005	0.00319515	5.16105e-005
1878.22	8.9732e-005	7.82667e-005	0.00183825	2.95344e-005
1882.02	8.51941e-005	7.42885e-005	0.00156844	2.49294e-005
1885.82	7.99575e-005	6.96966e-005	0.00167309	2.6331e-005
1889.62	7.72233e-005	6.7301e-005	0.00177532	2.77848e-005
1893.43	6.61269e-005	5.76128e-005	0.00166841	2.58909e-005
1897.23	0.00108387	0.000941854	0.0991854	0.00119649
